basic methyl red
1/1/2006 12:59:45 PM
Wavelength (nm),Absorbance
850.00,0.001229
849.00,-0.000475
848.00,0.000616
847.00,-0.000577
846.00,-0.000690
845.00,-0.000558
844.00,-0.000196
843.00,-0.001194
842.00,-0.000611
841.00,-0.000301
840.00,-0.000376
839.00,-0.001071
838.00,-0.000317
837.00,-0.001016
836.00,0.000060
835.00,-0.000254
834.00,0.000020
833.00,-0.000703
832.00,0.000177
831.00,0.000315
830.00,0.000338
829.00,-0.000055
828.00,0.000049
827.00,-0.000011
826.00,-0.000083
825.00,-0.000246
824.00,0.000042
823.00,-0.000185
822.00,-0.000395
821.00,0.000079
820.00,0.000749
819.00,0.000096
818.00,0.000742
817.00,-0.000287
816.00,0.001065
815.00,0.000182
814.00,-0.000038
813.00,0.002331
812.00,-0.000046
811.00,-0.000248
810.00,0.000846
809.00,-0.000157
808.00,0.000798
807.00,0.000012
806.00,0.000114
805.00,0.000802
804.00,0.000617
803.00,0.000493
802.00,0.001116
801.00,-0.000766
800.00,0.001018
799.00,-0.000161
798.00,0.000574
797.00,0.000037
796.00,-0.000067
795.00,-0.000695
794.00,0.001300
793.00,0.000440
792.00,0.001070
791.00,0.000303
790.00,0.000256
789.00,0.000843
788.00,0.000452
787.00,0.000385
786.00,0.000187
785.00,0.000475
784.00,-0.001222
783.00,-0.000262
782.00,-0.000568
781.00,-0.000411
780.00,-0.000525
779.00,-0.001204
778.00,-0.001228
777.00,0.000547
776.00,0.000079
775.00,-0.000196
774.00,0.000610
773.00,-0.000623
772.00,-0.000597
771.00,-0.000563
770.00,0.000061
769.00,-0.000797
768.00,-0.001937
767.00,0.000165
766.00,-0.000208
765.00,-0.000419
764.00,-0.000014
763.00,-0.000518
762.00,-0.000515
761.00,-0.000473
760.00,-0.000309
759.00,-0.000104
758.00,0.000078
757.00,-0.000421
756.00,-0.000441
755.00,0.000293
754.00,-0.000387
753.00,-0.000044
752.00,-0.000924
751.00,-0.000142
750.00,-0.000163
749.00,-0.000185
748.00,0.000581
747.00,-0.000077
746.00,0.000218
745.00,0.000337
744.00,-0.000088
743.00,-0.000113
742.00,0.000333
741.00,0.000213
740.00,0.000222
739.00,0.000307
738.00,-0.000632
737.00,0.000245
736.00,-0.000209
735.00,-0.000177
734.00,-0.000260
733.00,0.000053
732.00,0.000050
731.00,0.000063
730.00,-0.000058
729.00,-0.000195
728.00,0.000362
727.00,-0.000083
726.00,0.000392
725.00,-0.000193
724.00,-0.000672
723.00,-0.000327
722.00,0.000541
721.00,0.000179
720.00,-0.000159
719.00,-0.000260
718.00,0.000226
717.00,0.000591
716.00,0.000014
715.00,-0.000212
714.00,0.000282
713.00,0.000411
712.00,0.000079
711.00,0.000253
710.00,0.000277
709.00,-0.000399
708.00,0.000078
707.00,0.000677
706.00,-0.000105
705.00,-0.000044
704.00,-0.000241
703.00,-0.000053
702.00,-0.000067
701.00,0.000108
700.00,-0.000015
699.00,-0.000068
698.00,0.000024
697.00,-0.000378
696.00,-0.000012
695.00,0.000213
694.00,0.000182
693.00,-0.000048
692.00,0.000340
691.00,-0.000502
690.00,-0.000421
689.00,0.000226
688.00,0.000302
687.00,0.000139
686.00,0.000101
685.00,0.000138
684.00,0.000376
683.00,0.000003
682.00,0.000237
681.00,0.000051
680.00,0.000012
679.00,-0.000254
678.00,0.000106
677.00,0.000247
676.00,-0.000107
675.00,0.000194
674.00,0.000027
673.00,-0.000188
672.00,0.000108
671.00,0.000235
670.00,0.000032
669.00,0.000158
668.00,0.000354
667.00,-0.000248
666.00,-0.000187
665.00,0.000181
664.00,0.000233
663.00,0.000139
662.00,-0.000172
661.00,0.000046
660.00,-0.000020
659.00,-0.000104
658.00,0.000536
657.00,0.000177
656.00,-0.000175
655.00,-0.000539
654.00,-0.000447
653.00,0.000085
652.00,0.000075
651.00,0.000122
650.00,0.000250
649.00,0.000305
648.00,0.001087
647.00,0.000178
646.00,0.000436
645.00,0.000342
644.00,-0.000090
643.00,-0.000094
642.00,0.000459
641.00,0.000102
640.00,0.000227
639.00,0.000557
638.00,0.000605
637.00,0.000445
636.00,0.000347
635.00,0.000312
634.00,-0.000101
633.00,0.000439
632.00,0.000408
631.00,0.000499
630.00,0.000980
629.00,0.000321
628.00,0.000142
627.00,0.000493
626.00,0.000707
625.00,0.000767
624.00,0.000521
623.00,0.000636
622.00,0.000615
621.00,0.000849
620.00,0.000670
619.00,0.000863
618.00,0.000654
617.00,0.000684
616.00,0.001024
615.00,0.001014
614.00,0.000696
613.00,0.001205
612.00,0.001300
611.00,0.000943
610.00,0.001251
609.00,0.001303
608.00,0.001258
607.00,0.001254
606.00,0.001531
605.00,0.001490
604.00,0.001659
603.00,0.001615
602.00,0.001396
601.00,0.001806
600.00,0.002070
599.00,0.001937
598.00,0.002040
597.00,0.002178
596.00,0.002204
595.00,0.002144
594.00,0.002564
593.00,0.002570
592.00,0.002535
591.00,0.002882
590.00,0.003379
589.00,0.003343
588.00,0.003364
587.00,0.003960
586.00,0.003906
585.00,0.004403
584.00,0.004729
583.00,0.005201
582.00,0.005251
581.00,0.005415
580.00,0.005623
579.00,0.006218
578.00,0.006705
577.00,0.007125
576.00,0.007504
575.00,0.008114
574.00,0.008166
573.00,0.009125
572.00,0.009273
571.00,0.009604
570.00,0.010201
569.00,0.010684
568.00,0.010924
567.00,0.011741
566.00,0.012076
565.00,0.012368
564.00,0.013027
563.00,0.013288
562.00,0.014005
561.00,0.014242
560.00,0.014217
559.00,0.014694
558.00,0.015030
557.00,0.015261
556.00,0.015621
555.00,0.015689
554.00,0.016019
553.00,0.016080
552.00,0.016482
551.00,0.016590
550.00,0.016852
549.00,0.017106
548.00,0.017337
547.00,0.017249
546.00,0.017746
545.00,0.017984
544.00,0.018120
543.00,0.018272
542.00,0.018566
541.00,0.018745
540.00,0.019038
539.00,0.019430
538.00,0.020040
537.00,0.020484
536.00,0.020719
535.00,0.021213
534.00,0.021676
533.00,0.022244
532.00,0.022823
531.00,0.023471
530.00,0.024292
529.00,0.024828
528.00,0.025700
527.00,0.026467
526.00,0.027280
525.00,0.028081
524.00,0.029230
523.00,0.030258
522.00,0.031262
521.00,0.032561
520.00,0.033543
519.00,0.035064
518.00,0.036385
517.00,0.037828
516.00,0.039150
515.00,0.040737
514.00,0.042537
513.00,0.043809
512.00,0.045696
511.00,0.047805
510.00,0.049661
509.00,0.051961
508.00,0.053987
507.00,0.056091
506.00,0.058852
505.00,0.061279
504.00,0.063625
503.00,0.066460
502.00,0.069153
501.00,0.072119
500.00,0.075225
499.00,0.078416
498.00,0.081565
497.00,0.084624
496.00,0.088074
495.00,0.091720
494.00,0.095507
493.00,0.099042
492.00,0.102561
491.00,0.105887
490.00,0.109951
489.00,0.114048
488.00,0.118004
487.00,0.121698
486.00,0.125789
485.00,0.129672
484.00,0.133687
483.00,0.137906
482.00,0.141863
481.00,0.146100
480.00,0.149910
479.00,0.153752
478.00,0.157832
477.00,0.161976
476.00,0.165773
475.00,0.169736
474.00,0.173393
473.00,0.176990
472.00,0.181116
471.00,0.184572
470.00,0.188034
469.00,0.191376
468.00,0.194575
467.00,0.197830
466.00,0.201053
465.00,0.204264
464.00,0.207118
463.00,0.209872
462.00,0.212693
461.00,0.215233
460.00,0.217778
459.00,0.220156
458.00,0.222311
457.00,0.224299
456.00,0.226123
455.00,0.228173
454.00,0.230118
453.00,0.231728
452.00,0.233378
451.00,0.234663
450.00,0.235954
449.00,0.237393
448.00,0.238375
447.00,0.239434
446.00,0.240301
445.00,0.241175
444.00,0.241909
443.00,0.242720
442.00,0.243280
441.00,0.243700
440.00,0.244244
439.00,0.244612
438.00,0.245024
437.00,0.245469
436.00,0.245687
435.00,0.245869
434.00,0.245980
433.00,0.246068
432.00,0.246035
431.00,0.246080
430.00,0.246114
429.00,0.245942
428.00,0.245713
427.00,0.245701
426.00,0.245462
425.00,0.245329
424.00,0.245010
423.00,0.244710
422.00,0.244516
421.00,0.244129
420.00,0.243553
419.00,0.243143
418.00,0.242669
417.00,0.241780
416.00,0.241178
415.00,0.240578
414.00,0.239508
413.00,0.238625
412.00,0.237781
411.00,0.236765
410.00,0.235807
409.00,0.234577
408.00,0.233201
407.00,0.231927
406.00,0.230646
405.00,0.229280
404.00,0.227575
403.00,0.225675
402.00,0.224099
401.00,0.222421
400.00,0.220722
399.00,0.218712
398.00,0.216492
397.00,0.214334
396.00,0.211900
395.00,0.209581
394.00,0.207337
393.00,0.204830
392.00,0.202234
391.00,0.199418
390.00,0.196304
389.00,0.193773
388.00,0.190816
387.00,0.187957
386.00,0.184501
385.00,0.181349
384.00,0.178415
383.00,0.175414
382.00,0.172473
381.00,0.169004
380.00,0.165355
379.00,0.161789
378.00,0.158569
377.00,0.155250
376.00,0.151852
375.00,0.148550
374.00,0.145151
373.00,0.141600
372.00,0.138129
371.00,0.134840
370.00,0.131328
369.00,0.127902
368.00,0.124337
367.00,0.121275
366.00,0.118048
365.00,0.114515
364.00,0.111805
363.00,0.108227
362.00,0.105166
361.00,0.101852
360.00,0.099066
359.00,0.095957
358.00,0.093036
357.00,0.090137
356.00,0.087016
355.00,0.084277
354.00,0.081675
353.00,0.079272
352.00,0.076699
351.00,0.073802
350.00,0.071516


basic methyl red
1/1/2006 1:04:08 PM
Wavelength (nm),Absorbance
850.00,-0.000511
849.00,-0.000761
848.00,-0.001505
847.00,-0.000352
846.00,-0.001365
845.00,-0.002109
844.00,-0.000301
843.00,-0.001109
842.00,-0.000912
841.00,-0.001588
840.00,-0.001055
839.00,-0.001715
838.00,-0.001134
837.00,-0.001641
836.00,-0.000938
835.00,-0.000972
834.00,-0.000505
833.00,-0.001391
832.00,-0.000881
831.00,-0.000115
830.00,-0.000765
829.00,-0.000654
828.00,-0.000661
827.00,-0.001048
826.00,-0.001122
825.00,-0.000851
824.00,-0.000409
823.00,-0.001005
822.00,-0.000974
821.00,-0.001221
820.00,-0.000454
819.00,-0.000328
818.00,-0.000167
817.00,-0.000961
816.00,-0.000299
815.00,-0.001193
814.00,-0.000729
813.00,-0.000233
812.00,-0.000668
811.00,-0.000878
810.00,-0.000159
809.00,-0.000742
808.00,0.000282
807.00,-0.000268
806.00,-0.000935
805.00,-0.000919
804.00,0.000707
803.00,0.000532
802.00,0.000410
801.00,-0.000149
800.00,0.000183
799.00,-0.001189
798.00,-0.000668
797.00,-0.000497
796.00,-0.000324
795.00,-0.001274
794.00,0.000475
793.00,-0.000245
792.00,0.000099
791.00,-0.000001
790.00,0.000644
789.00,0.000413
788.00,0.000313
787.00,-0.000267
786.00,-0.001347
785.00,0.000270
784.00,-0.001464
783.00,-0.000149
782.00,-0.000612
781.00,0.000138
780.00,-0.000924
779.00,-0.000952
778.00,-0.000589
777.00,0.000743
776.00,0.000060
775.00,-0.000083
774.00,-0.000313
773.00,-0.000501
772.00,-0.001339
771.00,-0.000703
770.00,0.000751
769.00,0.000168
768.00,-0.001120
767.00,-0.000426
766.00,-0.000823
765.00,-0.000420
764.00,-0.000385
763.00,-0.000677
762.00,-0.000909
761.00,-0.000800
760.00,-0.000280
759.00,-0.000280
758.00,-0.000164
757.00,-0.000417
756.00,-0.000756
755.00,-0.000395
754.00,-0.000583
753.00,-0.000543
752.00,-0.000272
751.00,-0.000777
750.00,-0.000876
749.00,-0.000491
748.00,-0.000473
747.00,-0.000232
746.00,-0.000252
745.00,0.000028
744.00,-0.000487
743.00,-0.000100
742.00,-0.000910
741.00,-0.000818
740.00,-0.000513
739.00,0.000140
738.00,-0.000563
737.00,-0.001032
736.00,-0.000415
735.00,-0.000544
734.00,-0.000955
733.00,-0.000117
732.00,-0.000592
731.00,-0.000892
730.00,-0.000188
729.00,-0.000768
728.00,0.000608
727.00,-0.000924
726.00,-0.000790
725.00,0.000070
724.00,-0.000034
723.00,-0.000362
722.00,-0.000359
721.00,0.000202
720.00,-0.000246
719.00,-0.000256
718.00,0.000005
717.00,-0.000339
716.00,0.000283
715.00,-0.000229
714.00,-0.000352
713.00,-0.000030
712.00,0.000393
711.00,-0.000148
710.00,0.000298
709.00,-0.000293
708.00,0.000121
707.00,0.000301
706.00,-0.000281
705.00,-0.000362
704.00,-0.000438
703.00,-0.000313
702.00,-0.000417
701.00,-0.000076
700.00,-0.000108
699.00,-0.000145
698.00,-0.000060
697.00,-0.000323
696.00,-0.000044
695.00,-0.000286
694.00,-0.000007
693.00,-0.000191
692.00,0.000172
691.00,-0.000122
690.00,0.000122
689.00,0.000029
688.00,0.000393
687.00,0.000207
686.00,0.000029
685.00,-0.000321
684.00,0.000099
683.00,0.000071
682.00,-0.000119
681.00,-0.000005
680.00,-0.000171
679.00,0.000012
678.00,-0.000116
677.00,0.000114
676.00,-0.000119
675.00,0.000174
674.00,0.000192
673.00,-0.000007
672.00,-0.000057
671.00,0.000235
670.00,0.000321
669.00,0.000145
668.00,-0.000168
667.00,0.000633
666.00,0.000161
665.00,0.000544
664.00,-0.000001
663.00,0.000569
662.00,0.000246
661.00,0.000184
660.00,0.000082
659.00,0.000129
658.00,0.000353
657.00,0.000093
656.00,-0.000134
655.00,0.000049
654.00,-0.000203
653.00,0.000599
652.00,-0.000089
651.00,-0.000353
650.00,0.000068
649.00,0.000372
648.00,0.000613
647.00,0.000110
646.00,0.000318
645.00,0.000464
644.00,-0.000299
643.00,0.000365
642.00,0.000284
641.00,0.000456
640.00,0.000561
639.00,0.000749
638.00,0.000643
637.00,0.000269
636.00,-0.000153
635.00,0.000299
634.00,0.000095
633.00,0.000761
632.00,0.000573
631.00,0.000235
630.00,0.000321
629.00,0.000395
628.00,0.000284
627.00,0.000551
626.00,0.000540
625.00,0.000878
624.00,0.000616
623.00,0.000462
622.00,0.000602
621.00,0.000811
620.00,0.000366
619.00,0.000407
618.00,0.000434
617.00,0.000627
616.00,0.000763
615.00,0.000712
614.00,0.000815
613.00,0.000874
612.00,0.000855
611.00,0.000842
610.00,0.001098
609.00,0.000961
608.00,0.000919
607.00,0.001239
606.00,0.001606
605.00,0.001332
604.00,0.001155
603.00,0.001491
602.00,0.001387
601.00,0.001767
600.00,0.002140
599.00,0.002050
598.00,0.002211
597.00,0.002097
596.00,0.002243
595.00,0.002119
594.00,0.002410
593.00,0.002484
592.00,0.002848
591.00,0.002609
590.00,0.003406
589.00,0.003413
588.00,0.003556
587.00,0.003474
586.00,0.003788
585.00,0.004337
584.00,0.004668
583.00,0.004803
582.00,0.005006
581.00,0.005506
580.00,0.005884
579.00,0.006113
578.00,0.006485
577.00,0.006915
576.00,0.007406
575.00,0.007856
574.00,0.008200
573.00,0.008750
572.00,0.009279
571.00,0.009669
570.00,0.010117
569.00,0.010625
568.00,0.010783
567.00,0.011519
566.00,0.011957
565.00,0.012421
564.00,0.013177
563.00,0.013379
562.00,0.013838
561.00,0.013969
560.00,0.014308
559.00,0.014766
558.00,0.014994
557.00,0.015245
556.00,0.015807
555.00,0.015865
554.00,0.015928
553.00,0.016258
552.00,0.016423
551.00,0.016676
550.00,0.016944
549.00,0.017161
548.00,0.017231
547.00,0.017217
546.00,0.017679
545.00,0.017857
544.00,0.018124
543.00,0.018241
542.00,0.018649
541.00,0.018804
540.00,0.019183
539.00,0.019505
538.00,0.019805
537.00,0.020393
536.00,0.020830
535.00,0.021501
534.00,0.021682
533.00,0.022372
532.00,0.022865
531.00,0.023654
530.00,0.024350
529.00,0.024964
528.00,0.025727
527.00,0.026478
526.00,0.027477
525.00,0.028169
524.00,0.029194
523.00,0.030297
522.00,0.031289
521.00,0.032480
520.00,0.033785
519.00,0.035154
518.00,0.036292
517.00,0.037831
516.00,0.039243
515.00,0.040976
514.00,0.042546
513.00,0.043851
512.00,0.045742
511.00,0.047803
510.00,0.049730
509.00,0.051899
508.00,0.054054
507.00,0.056443
506.00,0.058871
505.00,0.061184
504.00,0.063578
503.00,0.066512
502.00,0.069324
501.00,0.072059
500.00,0.075176
499.00,0.078362
498.00,0.081508
497.00,0.084621
496.00,0.087978
495.00,0.091545
494.00,0.095473
493.00,0.098980
492.00,0.102459
491.00,0.105906
490.00,0.109954
489.00,0.113946
488.00,0.117893
487.00,0.121611
486.00,0.125661
485.00,0.129700
484.00,0.133637
483.00,0.137835
482.00,0.141779
481.00,0.145998
480.00,0.149618
479.00,0.153619
478.00,0.157723
477.00,0.161857
476.00,0.165695
475.00,0.169448
474.00,0.173200
473.00,0.176913
472.00,0.180980
471.00,0.184350
470.00,0.187789
469.00,0.191136
468.00,0.194217
467.00,0.197648
466.00,0.200950
465.00,0.204061
464.00,0.206856
463.00,0.209601
462.00,0.212395
461.00,0.215120
460.00,0.217646
459.00,0.219956
458.00,0.222019
457.00,0.224195
456.00,0.226156
455.00,0.228247
454.00,0.229971
453.00,0.231546
452.00,0.233251
451.00,0.234663
450.00,0.235810
449.00,0.237215
448.00,0.238318
447.00,0.239457
446.00,0.240263
445.00,0.241023
444.00,0.241869
443.00,0.242692
442.00,0.243197
441.00,0.243726
440.00,0.244219
439.00,0.244644
438.00,0.244983
437.00,0.245233
436.00,0.245568
435.00,0.245814
434.00,0.245826
433.00,0.245945
432.00,0.246013
431.00,0.246125
430.00,0.245931
429.00,0.245938
428.00,0.245702
427.00,0.245684
426.00,0.245435
425.00,0.245299
424.00,0.245060
423.00,0.244761
422.00,0.244420
421.00,0.243996
420.00,0.243560
419.00,0.243032
418.00,0.242577
417.00,0.241989
416.00,0.241289
415.00,0.240434
414.00,0.239641
413.00,0.238691
412.00,0.238086
411.00,0.237213
410.00,0.235988
409.00,0.234861
408.00,0.233500
407.00,0.232129
406.00,0.230754
405.00,0.229470
404.00,0.227851
403.00,0.225965
402.00,0.224348
401.00,0.222656
400.00,0.220951
399.00,0.218943
398.00,0.216879
397.00,0.214506
396.00,0.211991
395.00,0.209644
394.00,0.207563
393.00,0.205013
392.00,0.202356
391.00,0.199650
390.00,0.196609
389.00,0.194095
388.00,0.191047
387.00,0.188162
386.00,0.184932
385.00,0.181715
384.00,0.178475
383.00,0.175483
382.00,0.172217
381.00,0.168977
380.00,0.165604
379.00,0.162187
378.00,0.158784
377.00,0.155702
376.00,0.152475
375.00,0.149023
374.00,0.145106
373.00,0.141928
372.00,0.138493
371.00,0.135069
370.00,0.131683
369.00,0.128253
368.00,0.124397
367.00,0.121707
366.00,0.118183
365.00,0.114914
364.00,0.111994
363.00,0.108650
362.00,0.105506
361.00,0.102073
360.00,0.099292
359.00,0.096010
358.00,0.093113
357.00,0.090213
356.00,0.087239
355.00,0.084426
354.00,0.081852
353.00,0.079177
352.00,0.076663
351.00,0.073766
350.00,0.071570


acidic methyl red
1/1/2006 1:05:37 PM
Wavelength (nm),Absorbance
850.00,-0.000426
849.00,-0.000242
848.00,-0.000405
847.00,-0.000239
846.00,0.000157
845.00,-0.000843
844.00,-0.000339
843.00,-0.001203
842.00,-0.001022
841.00,-0.000604
840.00,-0.000623
839.00,-0.000643
838.00,-0.000726
837.00,-0.001141
836.00,0.000095
835.00,-0.000279
834.00,-0.000323
833.00,-0.000502
832.00,-0.000408
831.00,0.000034
830.00,-0.000149
829.00,-0.000507
828.00,-0.000333
827.00,-0.000126
826.00,-0.000585
825.00,-0.000722
824.00,-0.000176
823.00,-0.000534
822.00,-0.000390
821.00,-0.000323
820.00,0.000055
819.00,0.000268
818.00,0.000094
817.00,-0.000555
816.00,-0.000023
815.00,-0.001174
814.00,-0.000153
813.00,0.000806
812.00,0.000504
811.00,-0.001294
810.00,-0.000211
809.00,-0.002292
808.00,0.000316
807.00,-0.000234
806.00,-0.000675
805.00,-0.000588
804.00,0.000818
803.00,0.000188
802.00,-0.000241
801.00,-0.000072
800.00,0.000639
799.00,-0.000612
798.00,-0.000107
797.00,0.000047
796.00,0.000382
795.00,-0.000478
794.00,0.001290
793.00,0.000169
792.00,0.000459
791.00,0.000338
790.00,0.001186
789.00,0.000218
788.00,0.001921
787.00,0.000035
786.00,-0.000715
785.00,0.000421
784.00,-0.001173
783.00,-0.000272
782.00,-0.000504
781.00,-0.000183
780.00,0.000231
779.00,-0.000793
778.00,-0.000121
777.00,0.000211
776.00,-0.000253
775.00,-0.000330
774.00,0.000147
773.00,-0.000471
772.00,-0.001187
771.00,-0.000886
770.00,-0.000232
769.00,0.000641
768.00,-0.000938
767.00,0.000040
766.00,-0.000712
765.00,-0.000996
764.00,0.000087
763.00,-0.000671
762.00,-0.000364
761.00,-0.000569
760.00,-0.000563
759.00,-0.000748
758.00,0.000312
757.00,0.000337
756.00,-0.000587
755.00,-0.000247
754.00,-0.001224
753.00,-0.000501
752.00,-0.000555
751.00,-0.000144
750.00,-0.000727
749.00,-0.000324
748.00,-0.000163
747.00,-0.000781
746.00,-0.000464
745.00,0.000040
744.00,-0.000264
743.00,0.000435
742.00,-0.001053
741.00,-0.000712
740.00,0.000010
739.00,-0.000561
738.00,-0.001240
737.00,-0.000319
736.00,-0.000485
735.00,-0.000058
734.00,-0.000568
733.00,-0.000225
732.00,-0.000309
731.00,-0.000076
730.00,-0.000479
729.00,-0.000671
728.00,0.000707
727.00,-0.000046
726.00,-0.000362
725.00,-0.000227
724.00,-0.000793
723.00,-0.000230
722.00,-0.000027
721.00,0.000582
720.00,-0.000110
719.00,-0.000060
718.00,-0.000099
717.00,-0.000285
716.00,-0.000306
715.00,-0.000266
714.00,-0.000064
713.00,-0.000295
712.00,0.000099
711.00,0.000284
710.00,0.000390
